455,,450,,460,,465,,470,,475,,480,,485,,490,,495,,500,,505,,510,,515,,520,,525,,530,,535,,
Wavelength (nm),Intensity (a.u.),Wavelength (nm),Intensity (a.u.),Wavelength (nm),Intensity (a.u.),Wavelength (nm),Intensity (a.u.),Wavelength (nm),Intensity (a.u.),Wavelength (nm),Intensity (a.u.),Wavelength (nm),Intensity (a.u.),Wavelength (nm),Intensity (a.u.),Wavelength (nm),Intensity (a.u.),Wavelength (nm),Intensity (a.u.),Wavelength (nm),Intensity (a.u.),Wavelength (nm),Intensity (a.u.),Wavelength (nm),Intensity (a.u.),Wavelength (nm),Intensity (a.u.),Wavelength (nm),Intensity (a.u.),Wavelength (nm),Intensity (a.u.),Wavelength (nm),Intensity (a.u.),Wavelength (nm),Intensity (a.u.),
500,0.2326182425,455,3.397235155,465,2.77303195,470,3.214569807,475,2.91648984,480,2.620548487,485,2.667685032,490,1.76340878,495,1.822193146,500,2.093966007,504.9200134,2.462931871,510,4.780222893,514.9199829,11.38573074,520,28.81899071,525,67.40158081,530,153.7649384,534.9199829,296.3004761,540,498.493927,
501.0400085,0.3465511501,456.0599976,1.322974324,466.0599976,1.021512747,471.0599976,1.284415126,476.0599976,1.073938489,481.0599976,1.053128004,486.0599976,1.372109413,491.0599976,0.9666392803,496.0599976,1.005545735,501.0400085,1.356020689,505.9700012,2.16204071,511.0400085,5.073770523,515.9699707,13.12318134,521.0599976,33.71000671,526.0599976,79.66251373,531.039978,179.8616943,535.9699707,333.4251404,541.039978,547.2047729,
501.9400024,0.3555114269,456.9599915,0.5781683922,466.9599915,0.441487819,471.9599915,0.5470905304,476.9599915,0.5029467344,481.9599915,0.5179736614,486.9599915,0.6678526998,491.9599915,0.5672168732,496.9599915,0.7186613679,501.9400024,1.201527953,506.8599854,2.228600979,511.9400024,5.569044113,516.8599854,15.0378809,521.960022,38.55894852,526.960022,90.1366272,531.9400024,200.3281097,536.8599854,368.5159302,541.9400024,582.8396606,
502.980011,0.3537364304,458.0299988,0.2867087424,468.0299988,0.2129947096,473.0299988,0.2469603717,478.0299988,0.2352133393,483.0299988,0.302731663,488.0299988,0.4219385684,493.0299988,0.4521825314,498.0299988,0.6615546346,502.980011,1.158211708,507.9100037,2.493659019,512.9799805,6.675189495,517.9099731,17.93083382,523.0300293,46.67557526,528.0300293,107.3204498,532.9799805,229.6150055,537.9099731,413.6321106,542.9799805,634.8309326,
504.019989,0.4245868623,458.9299927,0.1899173558,468.9299927,0.1835535914,473.9299927,0.1744717807,478.9299927,0.2059102505,483.9299927,0.2767604887,488.9299927,0.3572644889,493.9299927,0.4556399584,498.9299927,0.672817409,504.019989,1.292249441,508.9500122,2.929889917,514.0200195,8.063485146,518.9500122,21.65270424,523.9299927,53.77505112,528.9299927,125.0027008,534.0200195,263.229126,538.9500122,458.0988159,544.0200195,676.6681519,
505.0700073,0.4795945287,460,0.1458354145,470,0.1537376791,475,0.1512058675,480,0.1806090474,485,0.2823209167,490,0.3274356723,495,0.4819853902,500,0.7396170497,505.0700073,1.509777069,509.8500061,3.579987288,515.0700073,9.730514526,519.8499756,25.07817841,525,63.68297195,530,145.0799561,535.0700073,301.0825806,539.8499756,501.9677734,545.0700073,722.2319946,
505.9700012,0.5150083303,461.0599976,0.0978211984,471.0599976,0.09442031384,476.0599976,0.1689563245,481.0599976,0.177183792,486.0599976,0.2897617519,491.0599976,0.3359744847,496.0599976,0.5096340179,501.0400085,0.8386771083,505.9700012,1.722614408,510.8900146,4.190623283,515.9699707,11.286129,520.9000244,29.48330307,526.0599976,76.40898895,531.039978,169.6816711,535.9699707,335.5047913,540.8900146,551.0172119,545.9699707,752.3787231,
507.0100098,0.5918754935,461.9599915,0.1580049247,471.9599915,0.1493929029,476.9599915,0.149652347,481.9599915,0.2225245684,486.9599915,0.2208767533,491.9599915,0.331107229,496.9599915,0.5180599689,501.9400024,0.9275130033,507.0100098,1.974585414,511.9400024,4.950745583,517.0100098,13.90330982,521.960022,34.94795227,526.960022,86.05582428,531.9400024,191.0273285,537.0100098,378.9455261,541.9400024,603.1484375,547.0100098,799.3978882,
508.0499878,0.7097744942,463.0299988,0.1123016551,473.0299988,0.1249628961,478.0299988,0.1755618006,483.0299988,0.1743183881,488.0299988,0.269483,493.0299988,0.4193681777,498.0299988,0.5770469904,502.980011,1.049266815,508.0499878,2.427444696,512.9799805,5.977496624,518.0499878,16.38994789,522.8699951,41.68435669,528.0300293,101.1334305,532.9799805,218.4664612,538.0499878,424.6543274,542.8300171,640.9810791,548.0499878,818.1868896,
508.9500122,0.7709852457,463.9299927,0.106453754,473.9299927,0.12214984,478.9299927,0.1636356413,483.9299927,0.2461173236,488.9299927,0.2435107529,493.9299927,0.4293065965,498.9299927,0.6361135244,504.019989,1.227459073,508.9500122,2.762867689,513.8800049,7.125,518.9500122,18.90942192,523.9299927,49.07302094,528.9299927,118.1606216,534.0200195,249.8084259,538.9500122,463.9609985,543.8800049,690.7255859,548.9500122,844.7435913,
510,0.9793209434,465,0.1232733652,475,0.1885734648,480,0.149045825,485,0.2100439221,490,0.2373788357,495,0.405505985,500,0.7055835724,505.0700073,1.431285024,510,3.241048574,514.9199829,8.442851067,520,22.59642029,524.8400269,56.89773178,530,137.6072388,535.0700073,285.8542786,540,511.096344,544.9199829,734.890625,550,878.3128052,
511.0400085,1.150361896,466.0599976,0.1441243142,476.0599976,0.1005360186,481.0599976,0.1341914237,486.0599976,0.2146464735,491.0599976,0.3223959804,496.0599976,0.4593245685,501.0400085,0.7594228387,505.9700012,1.649503231,511.0400085,3.866637707,515.9699707,10.03785133,521.0599976,26.7993679,525.9000244,67.34102631,531.039978,162.9637299,535.9699707,317.2646179,541.039978,562.5494995,545.9699707,777.111145,551.0200195,883.5878296,
511.9400024,1.315686584,466.9599915,0.1176370606,476.9599915,0.1326138079,481.9599915,0.1681652069,486.9599915,0.2024650127,491.9599915,0.338115871,496.9599915,0.4794371426,501.9400024,0.8692967296,507.0100098,1.953463078,511.9400024,4.597145081,516.8599854,11.67484379,521.960022,31.48193741,526.960022,78.26213074,531.9400024,181.1226501,537.0100098,359.853241,541.9400024,604.3434448,546.8599854,810.9954834,552.0499878,901.7075195,
512.9799805,1.496593237,468.0299988,0.1483749449,478.0299988,0.1654867083,483.0299988,0.1540805697,488.0299988,0.2382056862,493.0299988,0.3356571198,498.0299988,0.5280506015,502.980011,0.9809477329,508.0499878,2.288044691,512.9799805,5.564580441,517.9099731,14.12056637,523.0300293,37.4743576,527.8699951,91.49325562,532.9799805,208.252655,538.0499878,402.7329712,542.9799805,655.5046387,547.9099731,838.9786377,552.9400024,908.4559326,
514.0200195,1.820136189,468.9299927,0.1127298549,478.9299927,0.150329113,483.9299927,0.1965607554,488.9299927,0.2496419549,493.9299927,0.3331787288,498.9299927,0.5657426119,504.019989,1.14599359,508.9500122,2.568197489,514.0200195,6.585875511,518.9500122,16.85957146,523.9299927,43.28045273,528.9299927,108.0695114,534.0200195,236.2555237,538.9500122,438.9015198,544.0200195,694.5355835,548.9500122,866.6318359,553.9699707,909.3536987,
515.0700073,2.174382687,470,0.09942861646,480,0.1408096552,485,0.1984048337,490,0.2323090136,495,0.3539985418,500,0.6183209419,505.0700073,1.337928057,510,3.088432074,515.0700073,7.807715893,519.8499756,19.38446999,525,51.48837662,529.8400269,123.0476761,535.0700073,272.2271729,540,487.1056824,545.0700073,740.0126953,549.8499756,887.0380249,555,906.3675537,
515.9699707,2.508054495,471.0599976,0.1478007883,481.0599976,0.1489386708,486.0599976,0.2052182406,491.0599976,0.2828519642,496.0599976,0.3837673068,501.0400085,0.6902705431,505.9700012,1.489142656,511.0400085,3.760474205,515.9699707,9.256982803,520.9000244,23.23636818,526.0599976,60.57961655,530.8900146,143.3540192,535.9699707,301.2503357,541.039978,534.4229736,545.9699707,780.492981,550.8800049,903.4533081,556.0200195,903.6315918,
517.0100098,2.927607059,471.9599915,0.1286926717,481.9599915,0.102083005,486.9599915,0.1691948771,491.9599915,0.2831239104,496.9599915,0.353215903,501.9400024,0.8011994958,507.0100098,1.775055051,511.9400024,4.31129694,517.0100098,11.21950436,521.960022,27.84412575,526.960022,68.67124939,531.9400024,163.4242401,537.0100098,340.3572388,541.9400024,571.850769,547.0100098,815.0806885,551.9099731,917.4732666,557.0499878,887.9589233,
518.0499878,3.600182533,473.0299988,0.1132646203,483.0299988,0.1797129661,488.0299988,0.1854964942,493.0299988,0.272103548,498.0299988,0.4389873147,502.980011,0.8701351285,508.0499878,2.095302343,512.9799805,5.219386101,518.0499878,13.35754299,522.8699951,32.4684639,528.0300293,81.63248444,532.8300171,183.6325073,538.0499878,381.0323792,542.9799805,618.6491699,548.0499878,850.9927979,552.9400024,923.4276123,557.9400024,877.9674683,
518.9500122,4.141341686,473.9299927,0.1281990707,483.9299927,0.1563257277,488.9299927,0.1769619137,493.9299927,0.2543047965,498.9299927,0.4651223719,504.019989,1.010362029,508.9500122,2.397324562,514.0200195,6.444934845,518.9500122,15.65135479,523.9299927,38.83384705,528.9299927,93.92010498,533.8800049,213.2793884,538.9500122,416.1799316,544.0200195,667.8896484,548.9500122,875.8831177,553.9699707,928.8746948,558.9699707,865.4273682,
520,4.953989029,475,0.1262366325,485,0.1105122194,490,0.1954023093,495,0.315322727,500,0.5398128629,505.0700073,1.146458626,510,2.863594532,515.0700073,7.587848663,520,18.62499809,524.8400269,44.34370422,530,109.8805923,534.9199829,242.3289642,540,459.6558533,545.0700073,704.2868652,550,896.1917725,554.8499756,930.6203613,560,854.6729736,
521.0599976,5.663273811,476.0599976,0.1119061559,486.0599976,0.138460651,491.0599976,0.2051621079,496.0599976,0.3181544244,501.0400085,0.6046152711,505.9700012,1.261680365,511.0400085,3.472948074,515.9699707,8.88715744,521.0599976,22.06380081,525.9000244,52.42156982,531.039978,128.8535461,535.9699707,273.4945374,541.039978,503.0185547,545.9699707,740.6640625,551.0200195,906.6640625,555.8800049,926.854126,561.039978,833.3312378,
521.960022,6.647425175,476.9599915,0.1184070259,486.9599915,0.1753209978,491.9599915,0.2239522934,496.9599915,0.3237956762,501.9400024,0.6686926484,507.0100098,1.528646588,511.9400024,4.009076118,517.0100098,10.73456764,521.960022,25.64190102,526.960022,61.37518311,531.9400024,143.0205536,536.8599854,305.9382324,541.9400024,537.5477295,547.0100098,771.8389893,552.0499878,926.303833,556.9099731,920.4248657,561.9400024,813.085022,
523.0300293,7.936037064,478.0299988,0.1074200422,488.0299988,0.1485828906,493.0299988,0.1820975244,498.0299988,0.350833863,502.980011,0.6682722569,508.0499878,1.791542053,512.9799805,4.85962677,518.0499878,12.85591507,523.0300293,30.52925682,527.8699951,71.41838074,532.9799805,164.0048981,537.9099731,337.9573975,542.9799805,589.3292236,548.0499878,807.0685425,552.9400024,934.2460938,557.9400024,896.3301392,562.9799805,803.3010254,
523.9299927,9.279636383,478.9299927,0.0555582568,488.9299927,0.1614558101,493.9299927,0.2460543513,498.9299927,0.3670912087,504.019989,0.8188194633,508.9500122,2.064221621,514.0200195,5.857484341,518.9500122,14.90330124,523.9299927,35.31653976,528.9299927,83.98897552,534.0200195,189.8463593,538.9500122,376.5174255,544.0200195,626.1228638,548.9500122,830.4625244,553.9699707,937.3009644,558.9699707,881.3299561,564.0200195,766.2452393,
525,10.96378136,480,0.1218835115,490,0.2270663083,495,0.2345683277,500,0.3989812732,505.0700073,0.9177972674,510,2.418178558,515.0700073,6.977532387,520,17.79379463,525,42.12883377,529.8400269,95.83532715,535.0700073,215.7146454,539.8499756,413.4595032,545.0700073,665.7712402,550,854.572876,555,929.2226563,559.8499756,867.6066895,565.0700073,741.5663452,
526.0599976,12.84508038,481.0599976,0.1029576287,491.0599976,0.1910821497,496.0599976,0.2547770441,501.0400085,0.4905250967,505.9700012,1.050284028,511.0400085,2.930948257,515.9699707,8.25703907,521.0599976,21.18600655,526.0599976,49.83329773,530.8900146,112.8112946,535.9699707,239.6263733,540.8900146,451.9917297,545.9699707,700.9569092,551.0200195,875.1785889,556.0200195,925.7161865,560.8900146,857.6179199,565.9699707,714.9526978,
526.960022,14.63916779,481.9599915,0.1545626074,491.9599915,0.2220201641,496.9599915,0.2826523483,501.9400024,0.5092297792,507.0100098,1.199842691,511.9400024,3.372134209,517.0100098,9.882428169,521.960022,24.64366531,526.960022,56.4928093,531.9400024,128.0352631,537.0100098,270.4237671,541.9400024,493.4354248,547.0100098,728.4863892,552.0499878,895.4290161,557.0499878,916.6980591,561.9400024,830.4689941,567.0100098,690.0758057,
528.0300293,17.1037159,483.0299988,0.1258228123,493.0299988,0.1829338372,498.0299988,0.3072160184,502.980011,0.596159935,508.0499878,1.437495828,512.9799805,4.097532272,518.0499878,11.89428997,523.0300293,29.65411758,528.0300293,67.03877258,532.9799805,145.6131134,538.0499878,304.7494507,542.8300171,525.2836914,548.0499878,766.2832642,552.9400024,894.0203857,557.9400024,907.5809326,562.8300171,809.8300781,568.0499878,662.5708618,
528.9299927,19.65143967,483.9299927,0.125443995,493.9299927,0.2397824526,498.9299927,0.3150541484,504.019989,0.6546374559,508.9500122,1.656495094,514.0200195,4.896535397,518.9500122,13.67510414,523.9299927,34.21357727,528.9299927,77.50588989,533.8800049,165.3157196,538.9500122,329.8555298,543.8800049,560.9578247,548.9500122,781.9199829,553.9699707,898.0953979,558.9699707,891.6364136,563.8800049,779.2930908,568.9500122,643.9526978,
530,22.96591568,485,0.1140136123,495,0.2619076371,500,0.3081591129,505.0700073,0.8128039837,510,2.041446686,515.0700073,5.876674652,520,16.43541908,525,40.27719879,530,90.77744293,534.9199829,187.8332367,540,364.6366577,544.9199829,596.5918579,550,795.0811157,555,895.2700195,560,861.3241577,564.9199829,759.583313,570,622.8464966,
531.039978,26.79302406,486.0599976,0.1165591776,496.0599976,0.2369485199,501.0400085,0.420838505,505.9700012,0.8569200635,511.0400085,2.326125622,515.9699707,6.772311687,521.0599976,19.52722168,526.0599976,47.73783112,531.039978,105.1954346,535.9699707,211.5384674,541.039978,403.0078735,545.9699707,631.5759888,551.0200195,820.8937378,556.0200195,875.9331055,561.039978,845.6300659,565.9699707,732.3850708,571.0200195,591.5633545,
531.9400024,29.86321068,486.9599915,0.1074864268,496.9599915,0.2258495092,501.9400024,0.441057831,507.0100098,1.007326007,511.9400024,2.686580658,517.0100098,8.26666069,521.960022,22.69271851,526.960022,54.49879074,531.9400024,116.9745483,536.8599854,237.6514435,541.9400024,429.9933167,546.8599854,658.3216553,552.0499878,827.1490479,557.0499878,871.4467773,561.9400024,818.5997314,566.8599854,711.4091187,572.0499878,568.263855,
532.9799805,34.17689896,488.0299988,0.1653373539,498.0299988,0.2540347278,502.980011,0.482717514,508.0499878,1.135176301,512.9799805,3.362763166,518.0499878,9.778978348,523.0300293,27.11013985,528.0300293,64.54759979,532.9799805,135.607254,537.9099731,263.188324,542.9799805,465.5073547,547.9099731,684.1052246,552.9400024,832.4795532,557.9400024,861.4450684,562.9799805,810.3137817,567.9099731,684.7983398,572.9400024,546.9086304,
534.0200195,39.5474472,488.9299927,0.1416086704,498.9299927,0.2792062163,504.019989,0.5580489635,508.9500122,1.326160789,514.0200195,3.935240269,518.9500122,11.43608665,523.9299927,31.20331764,528.9299927,74.72997284,534.0200195,154.8697662,538.9500122,289.2543945,544.0200195,496.8919678,548.9500122,701.3956299,553.9699707,843.0162964,558.9699707,841.2312622,564.0200195,774.0473022,568.9500122,662.9915771,573.9699707,525.8493042,
535.0700073,45.17934799,490,0.180737406,500,0.2871852815,505.0700073,0.6441991925,510,1.573407412,515.0700073,4.67026329,520,13.5761795,525,37.23810959,530,87.07463074,535.0700073,178.0183258,539.8499756,321.1990662,545.0700073,527.5154419,549.8499756,724.8599854,555,827.2149658,560,828.2307129,565.0700073,755.6049194,569.8499756,638.0631714,575,505.1705322,
535.9699707,50.09176636,491.0599976,0.1823961586,501.0400085,0.2973937392,505.9700012,0.6975148916,511.0400085,1.881844282,515.9699707,5.425340176,521.0599976,16.21890068,526.0599976,44.05685425,531.039978,101.4107895,535.9699707,196.3488159,540.8900146,353.1583862,545.9699707,552.2893677,550.8800049,734.7816772,556.0200195,816.9619141,561.039978,809.8552856,565.9699707,741.4266968,570.8800049,617.5935059,576.0200195,481.9294434,
537.0100098,55.88178253,491.9599915,0.1412790418,501.9400024,0.3796719313,507.0100098,0.7822220325,511.9400024,2.180689335,517.0100098,6.59155798,521.960022,18.57798195,526.960022,49.50495148,531.9400024,113.3568039,537.0100098,223.5707855,541.9400024,382.7809753,547.0100098,578.8696289,551.9099731,744.7615967,557.0499878,817.7120361,561.9400024,783.5838013,567.0100098,711.3305054,571.9099731,595.2601929,577.0499878,465.211792,
538.0499878,63.03924179,493.0299988,0.1612556428,502.980011,0.3988086283,508.0499878,0.97665447,512.9799805,2.634776592,518.0499878,7.846008778,523.0300293,22.50362206,528.0300293,59.10143661,532.9799805,129.5113678,538.0499878,248.5466614,542.9799805,413.497406,548.0499878,598.7835083,552.9400024,753.2614746,557.9400024,810.9860229,562.9799805,768.4764404,568.0499878,682.0412598,572.9400024,568.9076538,577.9400024,450.8984985,
538.9500122,68.85657501,493.9299927,0.1301786751,504.019989,0.4751437306,508.9500122,1.079447389,514.0200195,3.155126095,518.9500122,9.010186195,523.9299927,25.98233032,528.9299927,68.58900452,534.0200195,150.3672485,538.9500122,272.0617371,543.8800049,439.0492249,548.9500122,616.5784302,553.9699707,753.9019165,558.9699707,797.9495239,564.0200195,747.631958,568.9500122,658.5143433,573.9699707,542.3745728,578.9699707,431.7795105,
540,76.04718018,495,0.127678737,505.0700073,0.5628318191,510,1.326459646,515.0700073,3.767581463,520,10.78034782,525,30.96285629,530,79.5340271,535.0700073,170.9975891,540,300.3713989,544.9199829,464.5014954,550,642.2005615,554.8499756,756.3189087,560,791.0524902,565.0700073,720.9849243,570,637.6869507,574.8499756,528.9304199,580,413.2641296,
541.039978,83.51570892,496.0599976,0.2089202106,505.9700012,0.6003232598,511.0400085,1.542847753,515.9699707,4.329861641,521.0599976,12.67130756,526.0599976,36.60422134,531.039978,92.78321075,535.9699707,188.98909,541.039978,329.9112244,545.9699707,491.1395874,551.0200195,646.4741211,555.8800049,752.7324219,561.039978,763.2214355,565.9699707,692.5476074,571.0200195,607.1643066,575.8800049,502.6254578,581.039978,397.1242981,
541.9400024,89.74384308,496.9599915,0.1695121974,507.0100098,0.7250183821,511.9400024,1.733977914,517.0100098,5.214913845,521.960022,14.65517235,526.960022,41.34481049,531.9400024,103.845993,537.0100098,214.1254578,541.9400024,355.1214905,546.8599854,513.8414307,552.0499878,659.322937,556.9099731,735.555481,561.9400024,739.0667725,567.0100098,669.0931396,572.0499878,588.7993164,576.9099731,483.138092,581.9400024,382.8564148,
542.9799805,96.45032501,498.0299988,0.1795927435,508.0499878,0.831638217,512.9799805,2.153537273,518.0499878,6.236126423,523.0300293,17.58692169,528.0300293,48.82831573,532.9799805,119.6916885,538.0499878,240.5740509,542.9799805,380.8335266,547.9099731,533.8022461,552.9400024,667.7329712,557.9400024,726.8384399,562.9799805,726.7666016,568.0499878,633.5447388,572.9400024,561.0534058,577.9400024,462.8483582,582.9799805,365.2992554,
544.0200195,103.2952652,498.9299927,0.1796783805,508.9500122,0.8981267214,514.0200195,2.560690641,518.9500122,7.192929268,523.9299927,20.40151787,528.9299927,56.59735107,534.0200195,137.0453949,538.9500122,260.630188,544.0200195,410.3899536,548.9500122,555.1195679,553.9699707,669.2589722,558.9699707,723.7600708,564.0200195,702.0931396,568.9500122,621.1657715,573.9699707,539.1858521,578.9699707,445.4033813,584.0200195,356.4919434,
545.0700073,110.4645996,500,0.2281244993,510,1.130585194,515.0700073,3.0522995,520,8.564845085,525,24.23241425,530,65.90265656,535.0700073,156.3253174,540,289.650238,545.0700073,430.1392822,549.8499756,564.0681763,555,669.5039673,559.8499756,712.9874268,565.0700073,680.784729,570,599.0452271,575,518.7627563,579.8499756,431.4208984,585.0700073,342.3052063,
