500,,550,,650,,700,,750,,770,,780,,720,,730,,680,,580,,590,,610,,
Wavelength (nm),Intensity (a.u.),Wavelength (nm),Intensity (a.u.),Wavelength (nm),Intensity (a.u.),Wavelength (nm),Intensity (a.u.),Wavelength (nm),Intensity (a.u.),Wavelength (nm),Intensity (a.u.),Wavelength (nm),Intensity (a.u.),Wavelength (nm),Intensity (a.u.),Wavelength (nm),Intensity (a.u.),Wavelength (nm),Intensity (a.u.),Wavelength (nm),Intensity (a.u.),Wavelength (nm),Intensity (a.u.),Wavelength (nm),Intensity (a.u.),
530,10.5145731,530,27.73690987,530,99.26768494,530,200.2543488,530,400.461792,530,469.4065857,530,526.2622681,530,255.4376068,530,280.8308411,530,155.9515076,530,34.56805038,530,39.17188263,530,57.16060638,
531.039978,8.354207993,531.039978,21.60251236,531.039978,85.3548584,531.039978,174.0641327,531.039978,340.5215454,531.039978,400.8166809,531.039978,452.4673157,531.039978,210.8671875,531.039978,241.5812378,531.039978,134.5037689,531.039978,29.21208572,531.039978,33.53125763,531.039978,48.37543488,
531.9400024,7.284009457,531.9400024,18.85490799,531.9400024,79.89752197,531.9400024,161.8417206,531.9400024,311.7203064,531.9400024,376.3266296,531.9400024,419.571228,531.9400024,201.5306549,531.9400024,225.1335602,531.9400024,123.0476151,531.9400024,27.54791069,531.9400024,31.61604691,531.9400024,44.63838577,
532.9799805,6.977982998,532.9799805,17.87255669,532.9799805,79.55728912,532.9799805,161.443573,532.9799805,305.8638611,532.9799805,374.0079346,532.9799805,416.3757324,532.9799805,197.747345,532.9799805,226.2568207,532.9799805,124.1214447,532.9799805,26.97402763,532.9799805,31.53227615,532.9799805,45.89551544,
534.0200195,7.426935673,534.0200195,18.45999908,534.0200195,86.24299622,534.0200195,172.4950256,534.0200195,326.7280884,534.0200195,404.7685242,534.0200195,447.6708679,534.0200195,217.0193176,534.0200195,241.440094,534.0200195,132.2741547,534.0200195,29.07486725,534.0200195,33.79624939,534.0200195,48.59078598,
535.0700073,8.209945679,535.0700073,20.74183273,535.0700073,95.17196655,535.0700073,189.4324188,535.0700073,358.290802,535.0700073,445.691864,535.0700073,495.6269836,535.0700073,240.4574738,535.0700073,266.6590881,535.0700073,144.6048126,535.0700073,32.54047775,535.0700073,37.15989304,535.0700073,54.21184921,
535.9699707,8.778790474,535.9699707,22.26088524,535.9699707,101.970871,535.9699707,204.3164673,535.9699707,388.7680054,535.9699707,480.9682312,535.9699707,535.6397705,535.9699707,258.7084656,535.9699707,290.2958069,535.9699707,155.5559692,535.9699707,34.53479767,535.9699707,40.08120346,535.9699707,57.61065674,
537.0100098,9.579973221,537.0100098,24.06247902,537.0100098,112.1789322,537.0100098,222.5861511,537.0100098,421.0890198,537.0100098,524.0767822,537.0100098,586.4813232,537.0100098,285.7057495,537.0100098,317.4233093,537.0100098,172.9659271,537.0100098,37.6680069,537.0100098,44.24966431,537.0100098,62.89490128,
538.0499878,10.40503883,538.0499878,26.45217133,538.0499878,121.4306107,538.0499878,242.2281036,538.0499878,457.7356873,538.0499878,569.3300171,538.0499878,632.5499268,538.0499878,306.4680786,538.0499878,343.9589844,538.0499878,188.085495,538.0499878,41.21871185,538.0499878,47.55518723,538.0499878,68.24874878,
538.9500122,10.97845173,538.9500122,27.95871735,538.9500122,128.6450348,538.9500122,257.3080444,538.9500122,483.5897522,538.9500122,599.4077759,538.9500122,675.2371826,538.9500122,326.8815308,538.9500122,359.9676514,538.9500122,197.7901611,538.9500122,43.13002014,538.9500122,50.99590683,538.9500122,72.55491638,
540,11.73680687,540,29.60968208,540,136.6751251,540,272.9716187,540,515.6331787,540,649.9682617,540,711.6546021,540,345.9428101,540,389.8088074,540,210.6350555,540,46.40625381,540,53.68964767,540,77.04359436,
541.039978,12.53931618,541.039978,31.70108795,541.039978,145.4050903,541.039978,289.723053,541.039978,549.616272,541.039978,684.9758301,541.039978,750.0029907,541.039978,370.2606812,541.039978,412.8262024,541.039978,224.1977081,541.039978,49.56842422,541.039978,57.78215408,541.039978,81.80593109,
541.9400024,12.9048872,541.9400024,32.57368469,541.9400024,151.6687469,541.9400024,308.1662292,541.9400024,573.7404785,541.9400024,714.2348633,541.9400024,794.6379395,541.9400024,384.6793823,541.9400024,430.9553223,541.9400024,233.5733337,541.9400024,51.91557693,541.9400024,59.66592407,541.9400024,86.35447693,
542.9799805,13.65381432,542.9799805,34.24411392,542.9799805,159.0948181,542.9799805,318.0883484,542.9799805,598.7783203,542.9799805,736.2329102,542.9799805,838.5145264,542.9799805,403.8526611,542.9799805,449.8600464,542.9799805,245.4468689,542.9799805,54.18056488,542.9799805,63.22519302,542.9799805,88.6046524,
544.0200195,14.09269619,544.0200195,35.93115997,544.0200195,165.2969818,544.0200195,328.7385254,544.0200195,621.5802002,544.0200195,779.7197876,544.0200195,860.2438965,544.0200195,419.438324,544.0200195,470.0195618,544.0200195,255.1139526,544.0200195,56.40678406,544.0200195,66.09348297,544.0200195,92.82779694,
545.0700073,14.66107178,545.0700073,37.06136322,545.0700073,169.9466705,545.0700073,344.9794922,545.0700073,645.8529053,545.0700073,793.477417,545.0700073,879.4094849,545.0700073,429.6156006,545.0700073,482.7233582,545.0700073,264.0205994,545.0700073,58.06719208,545.0700073,67.21070862,545.0700073,95.99474335,
545.9699707,15.0077076,545.9699707,37.65880203,545.9699707,174.7798767,545.9699707,350.6045227,545.9699707,659.2596436,545.9699707,817.4869995,545.9699707,908.8180542,545.9699707,442.6905518,545.9699707,495.7256165,545.9699707,270.5291748,545.9699707,58.87968063,545.9699707,68.88433075,545.9699707,99.96730804,
547.0100098,15.33511162,547.0100098,38.73498154,547.0100098,178.7280426,547.0100098,360.6254578,547.0100098,680.932312,547.0100098,833.7011108,547.0100098,938.0853882,547.0100098,450.8813782,547.0100098,506.0207214,547.0100098,274.8137207,547.0100098,60.88854218,547.0100098,69.7181015,547.0100098,101.6225967,
548.0499878,15.77573967,548.0499878,39.15995026,548.0499878,180.3783569,548.0499878,363.2980347,548.0499878,682.6773071,548.0499878,845.2687988,548.0499878,945.4741821,548.0499878,458.986084,548.0499878,510.5712891,548.0499878,279.0700378,548.0499878,61.80179596,548.0499878,70.57372284,548.0499878,102.7318802,
548.9500122,15.56338692,548.9500122,39.19605255,548.9500122,182.5632782,548.9500122,369.8363647,548.9500122,691.8713989,548.9500122,859.6692505,548.9500122,958.4932861,548.9500122,464.9583435,548.9500122,513.2757568,548.9500122,283.8909607,548.9500122,62.36030197,548.9500122,72.81465149,548.9500122,104.822113,
550,15.80113316,550,39.70203781,550,185.800705,550,372.7833557,550,695.0374756,550,866.2334595,550,959.5592041,550,464.6452637,550,514.9223633,550,284.6692505,550,62.27621078,550,73.73291016,550,104.9810638,
551.0200195,15.81577015,551.0200195,39.95576859,551.0200195,184.4509277,551.0200195,374.7620544,551.0200195,695.0819092,551.0200195,857.2304077,551.0200195,969.0892944,551.0200195,467.1550598,551.0200195,519.8531494,551.0200195,287.4735718,551.0200195,63.06751251,551.0200195,72.99368286,551.0200195,105.6816406,
552.0499878,15.68342781,552.0499878,40.10580444,552.0499878,183.7456055,552.0499878,372.4961853,552.0499878,699.0240479,552.0499878,857.3887329,552.0499878,960.4462891,552.0499878,469.7767334,552.0499878,524.5747681,552.0499878,283.8627625,552.0499878,62.52287292,552.0499878,73.48269653,552.0499878,105.8224258,
552.9400024,15.79906559,552.9400024,39.50804138,552.9400024,184.7653503,552.9400024,367.8981934,552.9400024,691.5375366,552.9400024,853.0343628,552.9400024,946.4932251,552.9400024,467.2592468,552.9400024,520.2016602,552.9400024,284.6912231,552.9400024,62.39634323,552.9400024,73.02480316,552.9400024,103.5403976,
553.9699707,15.48985291,553.9699707,39.37709427,553.9699707,181.6199036,553.9699707,367.9985962,553.9699707,688.1026611,553.9699707,853.6227417,553.9699707,949.1511841,553.9699707,460.7725525,553.9699707,513.8235474,553.9699707,280.0756531,553.9699707,61.66265488,553.9699707,72.29379272,553.9699707,103.8669815,
555,15.28758621,555,38.79877472,555,177.1941528,555,363.8705444,555,676.907959,555,836.5808105,555,931.0275879,555,455.1802063,555,507.4378357,555,278.2392883,555,60.68490982,555,70.83750153,555,102.0617905,
556.0200195,15.11835098,556.0200195,38.28049469,556.0200195,176.2380219,556.0200195,351.0799255,556.0200195,660.4692993,556.0200195,819.4135132,556.0200195,925.7575073,556.0200195,444.2957458,556.0200195,498.9340515,556.0200195,268.8695374,556.0200195,60.59694672,556.0200195,69.97681427,556.0200195,100.4894562,
557.0499878,14.88576126,557.0499878,37.43504715,557.0499878,174.4538574,557.0499878,347.484436,557.0499878,650.7780151,557.0499878,810.6035767,557.0499878,893.9824219,557.0499878,438.4665222,557.0499878,489.9574585,557.0499878,266.7310181,557.0499878,58.6343689,557.0499878,68.70037842,557.0499878,98.39137268,
557.9400024,14.62276077,557.9400024,36.62710571,557.9400024,170.0923309,557.9400024,343.7961426,557.9400024,643.4222412,557.9400024,788.3100586,557.9400024,891.2957764,557.9400024,424.4439392,557.9400024,476.9993286,557.9400024,264.2297974,557.9400024,57.50439453,557.9400024,67.89971161,557.9400024,97.00953674,
558.9699707,14.24060917,558.9699707,35.80911255,558.9699707,166.9890594,558.9699707,332.9153137,558.9699707,625.9419556,558.9699707,767.9967041,558.9699707,859.1401367,558.9699707,416.8117981,558.9699707,473.7646179,558.9699707,256.5802002,558.9699707,56.38031387,558.9699707,66.17267609,558.9699707,94.52994537,
560,13.81879997,560,35.04243851,560,162.3218231,560,320.2295227,560,607.0709229,560,756.5038452,560,839.4676514,560,405.6523438,560,461.2757263,560,250.8355103,560,54.51827621,560,64.31716156,560,90.59468842,
561.039978,13.3643465,561.039978,33.80241394,561.039978,155.7402344,561.039978,315.868866,561.039978,594.609436,561.039978,736.7608032,561.039978,808.9122925,561.039978,395.9399109,561.039978,443.8966064,561.039978,241.8271332,561.039978,53.45498657,561.039978,62.33739853,561.039978,87.79150391,
561.9400024,12.9920845,561.9400024,32.6879921,561.9400024,154.17659,561.9400024,304.8709717,561.9400024,580.520752,561.9400024,710.9407959,561.9400024,785.2521362,561.9400024,384.4631348,561.9400024,433.6198425,561.9400024,234.8973846,561.9400024,52.51016998,561.9400024,60.68635559,561.9400024,86.41886139,
562.9799805,12.56717014,562.9799805,31.40138054,562.9799805,146.5475464,562.9799805,293.9654846,562.9799805,554.3040161,562.9799805,697.7012939,562.9799805,770.0863037,562.9799805,372.0832825,562.9799805,414.2630615,562.9799805,228.0745697,562.9799805,50.29256821,562.9799805,58.14121246,562.9799805,82.92604065,
564.0200195,12.08863449,564.0200195,30.93426323,564.0200195,142.6677856,564.0200195,288.4585266,564.0200195,534.8717651,564.0200195,663.5082397,564.0200195,742.2488403,564.0200195,358.3265381,564.0200195,396.2815857,564.0200195,219.0481262,564.0200195,48.31123734,564.0200195,56.91927338,564.0200195,80.43122864,
565.0700073,11.68448162,565.0700073,29.86116982,565.0700073,138.7303619,565.0700073,276.3974609,565.0700073,517.5974121,565.0700073,641.1287231,565.0700073,718.0148926,565.0700073,342.5281982,565.0700073,388.1620178,565.0700073,210.71492,565.0700073,46.36891937,565.0700073,54.78148651,565.0700073,76.95233154,
565.9699707,11.32084942,565.9699707,28.72224617,565.9699707,132.6205292,565.9699707,267.1753845,565.9699707,502.6232605,565.9699707,612.8757935,565.9699707,695.4645996,565.9699707,333.9508972,565.9699707,375.4438171,565.9699707,204.2054901,565.9699707,44.96794128,565.9699707,53.27486038,565.9699707,74.72618866,
567.0100098,10.95357132,567.0100098,27.50275612,567.0100098,127.3630981,567.0100098,253.8037262,567.0100098,483.1727295,567.0100098,596.3651733,567.0100098,673.3764648,567.0100098,323.2305908,567.0100098,358.1656799,567.0100098,198.7247162,567.0100098,43.24595261,567.0100098,50.6355896,567.0100098,71.38117218,
568.0499878,10.57597733,568.0499878,26.62177277,568.0499878,122.3561249,568.0499878,245.9131317,568.0499878,462.2539368,568.0499878,579.6804199,568.0499878,642.1878052,568.0499878,308.7794495,568.0499878,348.0037537,568.0499878,192.1517029,568.0499878,41.49737549,568.0499878,49.11285019,568.0499878,68.74368286,
568.9500122,10.16390705,568.9500122,25.44079971,568.9500122,117.1105118,568.9500122,235.9355011,568.9500122,445.2692871,568.9500122,552.2312622,568.9500122,615.4042969,568.9500122,298.0576172,568.9500122,334.7677307,568.9500122,184.7287598,568.9500122,40.35565186,568.9500122,47.8731575,568.9500122,65.73088074,
570,9.79798317,570,24.49594879,570,113.5716629,570,225.9881134,570,429.233429,570,532.5441284,570,594.9006348,570,286.1653137,570,318.9817505,570,177.9781189,570,38.74856186,570,45.3143425,570,63.60879517,
571.0200195,9.350013733,571.0200195,23.71591759,571.0200195,108.0890808,571.0200195,219.571991,571.0200195,410.151825,571.0200195,507.3636169,571.0200195,576.934082,571.0200195,274.4151611,571.0200195,307.2816772,571.0200195,168.1893311,571.0200195,37.00097275,571.0200195,43.43072891,571.0200195,60.65208054,
572.0499878,8.98212719,572.0499878,22.57324219,572.0499878,103.4433517,572.0499878,207.0964203,572.0499878,391.1594238,572.0499878,487.2518311,572.0499878,555.4315796,572.0499878,262.4927063,572.0499878,294.6105042,572.0499878,162.4906311,572.0499878,35.06207275,572.0499878,41.35374069,572.0499878,59.25925827,
572.9400024,8.7578125,572.9400024,21.86430931,572.9400024,98.89445496,572.9400024,203.9146729,572.9400024,378.4247742,572.9400024,474.3305664,572.9400024,525.218811,572.9400024,252.524231,572.9400024,284.5960083,572.9400024,155.5673828,572.9400024,33.96654129,572.9400024,39.74087906,572.9400024,57.56275558,
573.9699707,8.335923195,573.9699707,21.08934402,573.9699707,95.31207275,573.9699707,191.8192139,573.9699707,365.6666565,573.9699707,452.3815308,573.9699707,505.9676819,573.9699707,241.4191284,573.9699707,272.7798462,573.9699707,147.9189911,573.9699707,32.59156418,573.9699707,38.33496857,573.9699707,54.89956284,
575,8.003239632,575,19.89723206,575,92.25821686,575,185.8590698,575,348.1756897,575,434.6775208,575,481.4441528,575,232.0259399,575,262.7286987,575,140.7862244,575,31.2730484,575,36.59329605,575,51.5724678,
576.0200195,7.678789616,576.0200195,19.16270065,576.0200195,87.58020782,576.0200195,178.6066132,576.0200195,335.3382568,576.0200195,410.6418457,576.0200195,466.5813904,576.0200195,222.1980896,576.0200195,252.1937561,576.0200195,136.5875092,576.0200195,30.0704689,576.0200195,35.4141922,576.0200195,50.38398743,
577.0499878,7.29355669,577.0499878,18.5620842,577.0499878,84.98288727,577.0499878,170.5152588,577.0499878,322.0401917,577.0499878,402.5068665,577.0499878,453.2679443,577.0499878,211.7444153,577.0499878,240.9125977,577.0499878,130.7237701,577.0499878,29.12922287,577.0499878,33.75621796,577.0499878,48.04475403,
577.9400024,7.04346323,577.9400024,17.77247047,577.9400024,80.88108826,577.9400024,162.4745636,577.9400024,309.5441589,577.9400024,380.5364685,577.9400024,438.8785095,577.9400024,207.2518463,577.9400024,230.5334625,577.9400024,125.3646011,577.9400024,27.80867577,577.9400024,32.7926445,577.9400024,46.37337112,
578.9699707,6.894255161,578.9699707,17.09035301,578.9699707,77.79187012,578.9699707,157.9752045,578.9699707,297.8463135,578.9699707,368.3303528,578.9699707,415.1709595,578.9699707,196.424057,578.9699707,221.0822601,578.9699707,120.4260635,578.9699707,26.5385704,578.9699707,31.27682877,578.9699707,44.13444519,
580,6.549263477,580,16.28899384,580,75.57129669,580,151.1119232,580,281.4133301,580,351.4680481,580,396.3945618,580,188.8564301,580,212.921463,580,116.6967163,580,25.33275986,580,30.12919998,580,42.50919724,
581.039978,6.298286915,581.039978,15.85206413,581.039978,72.20485687,581.039978,146.7010651,581.039978,268.9077148,581.039978,343.4118042,581.039978,388.0608826,581.039978,182.5363922,581.039978,203.120697,581.039978,111.6226349,581.039978,24.86088943,581.039978,28.85558319,581.039978,40.99279785,
581.9400024,6.062271118,581.9400024,15.12422276,581.9400024,70.28223419,581.9400024,141.706131,581.9400024,265.7319641,581.9400024,327.6775513,581.9400024,367.9836121,581.9400024,177.3206482,581.9400024,199.9812012,581.9400024,107.6832733,581.9400024,23.7440815,581.9400024,27.54333878,581.9400024,39.85847855,
582.9799805,5.797671318,582.9799805,14.57821274,582.9799805,67.16413116,582.9799805,133.8281555,582.9799805,253.5130157,582.9799805,316.9548645,582.9799805,360.8790894,582.9799805,169.659317,582.9799805,189.6168365,582.9799805,104.8104401,582.9799805,23.38151741,582.9799805,26.90756035,582.9799805,38.02111053,
584.0200195,5.513553619,584.0200195,14.05292034,584.0200195,65.38200378,584.0200195,132.7737427,584.0200195,244.2529755,584.0200195,306.3849182,584.0200195,346.9543152,584.0200195,165.3950958,584.0200195,182.5315552,584.0200195,99.52624512,584.0200195,22.26777077,584.0200195,25.69025421,584.0200195,37.12732315,
585.0700073,5.363797665,585.0700073,13.6910944,585.0700073,62.0149498,585.0700073,126.4298248,585.0700073,235.3627014,585.0700073,291.3496399,585.0700073,336.4671021,585.0700073,158.8169556,585.0700073,180.056778,585.0700073,96.98951721,585.0700073,21.3457756,585.0700073,25.26583862,585.0700073,36.19076538,
585.9699707,5.184980869,585.9699707,13.01843071,585.9699707,60.43474197,585.9699707,121.4237137,585.9699707,226.3090057,585.9699707,284.9485474,585.9699707,327.0378723,585.9699707,154.9717407,585.9699707,171.147995,585.9699707,92.977005,585.9699707,20.92629242,585.9699707,24.45390892,585.9699707,34.63937378,
587.0100098,5.110053062,587.0100098,12.75063515,587.0100098,58.9529953,587.0100098,119.3738327,587.0100098,223.8329315,587.0100098,274.7868042,587.0100098,313.8018188,587.0100098,146.9573212,587.0100098,166.7737274,587.0100098,91.49763489,587.0100098,19.99657059,587.0100098,23.66651535,587.0100098,33.45843887,
588.0499878,4.823365211,588.0499878,12.16218662,588.0499878,55.9593544,588.0499878,114.3883286,588.0499878,215.3559723,588.0499878,262.3462219,588.0499878,298.0741577,588.0499878,144.9392853,588.0499878,161.3997803,588.0499878,87.89096069,588.0499878,19.30110359,588.0499878,22.84578323,588.0499878,32.53225708,
588.9500122,4.815228939,588.9500122,11.85367107,588.9500122,55.52863693,588.9500122,109.7713699,588.9500122,208.1352081,588.9500122,258.1373901,588.9500122,289.9381714,588.9500122,140.3099518,588.9500122,156.3743286,588.9500122,85.84616089,588.9500122,18.79856682,588.9500122,21.87298012,588.9500122,31.43265152,
590,4.632474422,590,11.4397583,590,53.15969467,590,108.0603714,590,200.6246338,590,246.3848877,590,281.1767273,590,133.3543091,590,151.8265381,590,83.22238922,590,18.47707367,590,21.22998238,590,30.75791168,
591.0200195,4.506361485,591.0200195,11.1390934,591.0200195,51.56996918,591.0200195,104.0330811,591.0200195,194.6736755,591.0200195,242.8029327,591.0200195,272.2593994,591.0200195,130.9431915,591.0200195,148.1704102,591.0200195,80.30621338,591.0200195,17.43094063,591.0200195,20.6330471,591.0200195,29.13666725,
592.0499878,4.288585186,592.0499878,11.00763702,592.0499878,50.31434631,592.0499878,98.93143463,592.0499878,189.3990784,592.0499878,232.2266846,592.0499878,266.6890259,592.0499878,126.3532791,592.0499878,140.9322357,592.0499878,78.56957245,592.0499878,17.09593582,592.0499878,19.70430756,592.0499878,28.3620491,
592.9400024,4.162588596,592.9400024,10.49519825,592.9400024,48.82478333,592.9400024,98.95121765,592.9400024,180.8298035,592.9400024,224.9340363,592.9400024,257.2520447,592.9400024,121.6268311,592.9400024,136.8336792,592.9400024,75.15789795,592.9400024,16.74349785,592.9400024,19.40942574,592.9400024,27.55221748,
593.9699707,4.111219406,593.9699707,10.38570213,593.9699707,46.88049316,593.9699707,94.61998749,593.9699707,177.9898529,593.9699707,221.2264862,593.9699707,250.6843567,593.9699707,117.3826904,593.9699707,133.8008728,593.9699707,73.84635925,593.9699707,15.91553688,593.9699707,18.85799599,593.9699707,26.62231636,
595,3.994618654,595,9.79813385,595,46.3249588,595,91.27399445,595,171.3394775,595,209.0154877,595,239.9033813,595,113.022049,595,128.9118195,595,70.03364563,595,15.58350754,595,18.08924103,595,26.00330734,
